Model,DPO4104B
Firmware Version,1.38

Waveform Type,Analog,Analog,Analog,Analog
Point Format,Y,,,
Horizontal Units,s,,,
Horizontal Scale,2e-09,,,
Horizontal Delay,5.7e-09,5.7e-09,5.7e-09,5.7e-09
Sample Interval,2e-10,,,
Record Length,1000,,,
Gating,0.0% to 100.0%,0.0% to 100.0%,0.0% to 100.0%,0.0% to 100.0%
Probe Attenuation,1,1,1,1
Vertical Units,V,V,V,V
Vertical Offset,0,0,0,0
Vertical Scale,0.1,0.1,0.1,0.1
Vertical Position,-3.88,-3.98,-3.8,-3.96
Label,,,,
TIME,CH1,CH2,CH3,CH4
-9.430e-08,0.004,-0.006,-0.008,-0.004
-9.410e-08,-0.008,-0.002,-0.008,0
-9.390e-08,-0.008,-0.002,-0.008,0
-9.370e-08,-0.008,0.002,-0.004,0.008
-9.350e-08,-0.004,0.002,-0.012,0.004
-9.330e-08,-0.008,-0.002,-0.004,0.004
-9.310e-08,0,-0.006,4.44089e-17,0.004
-9.290e-08,-0.008,-0.006,4.44089e-17,0.008
-9.270e-08,0.004,-0.002,-0.008,0.004
-9.250e-08,-0.008,-0.006,4.44089e-17,0
-9.230e-08,-0.004,-0.002,-0.008,0.004
-9.210e-08,-0.008,-0.006,-0.004,0.004
-9.190e-08,-0.008,-0.002,-0.008,0.008
-9.170e-08,-0.008,-0.006,-0.008,0.008
-9.150e-08,0,-0.002,-0.008,0.008
-9.130e-08,-0.004,-0.006,-0.008,0.004
-9.110e-08,0,-0.002,-0.008,0.008
-9.090e-08,-0.004,-0.006,4.44089e-17,0.004
-9.070e-08,0.004,-0.002,4.44089e-17,0.008
-9.050e-08,-0.008,-0.002,4.44089e-17,0.008
-9.030e-08,0.004,-0.002,-0.008,0.008
-9.010e-08,-0.004,-0.01,-0.008,0.008
-8.990e-08,-0.008,-0.01,-0.008,0
-8.970e-08,-0.004,-0.014,-0.004,0
-8.950e-08,0,-0.002,4.44089e-17,0
-8.930e-08,-0.004,-0.002,-0.008,0
-8.910e-08,0,-0.002,-0.008,0
-8.890e-08,-0.004,-0.014,-0.008,0
-8.870e-08,0,-0.01,-0.004,-0.004
-8.850e-08,-0.004,-0.01,-0.008,0
-8.830e-08,0.004,-0.002,-0.008,0.016
-8.810e-08,-0.004,-0.006,-0.008,0.004
-8.790e-08,0,-0.01,-0.008,0
-8.770e-08,0,-0.01,4.44089e-17,0
-8.750e-08,-0.004,-0.006,-0.004,0.004
-8.730e-08,-0.004,-0.002,-0.008,0
-8.710e-08,0,-0.01,4.44089e-17,0.004
-8.690e-08,0,-0.002,-0.004,0.004
-8.670e-08,0,-0.002,-0.004,0
-8.650e-08,0,-0.002,4.44089e-17,0.008
-8.630e-08,0.004,-0.002,-0.008,0.008
-8.610e-08,-0.008,-0.002,-0.012,0.012
-8.590e-08,0,-0.006,-0.008,0.008
-8.570e-08,-0.012,-0.006,4.44089e-17,0.004
-8.550e-08,0,0.006,-0.016,0
-8.530e-08,-0.008,-0.01,-0.012,0.008
-8.510e-08,0,-0.002,-0.008,0.02
-8.490e-08,0,-0.01,4.44089e-17,0.008
-8.470e-08,0,-0.002,-0.004,0.004
-8.450e-08,-0.016,-0.014,4.44089e-17,0
-8.430e-08,0,-0.006,4.44089e-17,0
-8.410e-08,-0.004,-0.006,4.44089e-17,0.004
-8.390e-08,0,-0.006,-0.012,0.008
-8.370e-08,-0.008,-0.01,-0.008,0
-8.350e-08,0,-0.002,-0.008,0.008
-8.330e-08,-0.004,-0.01,4.44089e-17,0
-8.310e-08,0,-0.002,-0.008,0.008
-8.290e-08,-0.004,-0.01,-0.008,-0.004
-8.270e-08,0.004,-0.002,-0.008,0.004
-8.250e-08,-0.008,0.002,-0.004,0.008
-8.230e-08,-0.004,0.006,-0.008,0
-8.210e-08,0,-0.01,-0.004,0
-8.190e-08,0,0.002,-0.004,0.008
-8.170e-08,-0.004,-0.006,-0.004,0.008
-8.150e-08,0.004,0.002,-0.008,0.008
-8.130e-08,-0.004,-0.002,-0.004,0.004
-8.110e-08,0,-0.002,-0.008,0
-8.090e-08,-0.004,-0.002,-0.004,0.008
-8.070e-08,0.004,-0.002,-0.008,0.008
-8.050e-08,-0.004,-0.002,-0.008,0
-8.030e-08,0,-0.002,-0.004,0.008
-8.010e-08,-0.004,-0.002,4.44089e-17,0.012
-7.990e-08,0,-0.002,-0.008,0.008
-7.970e-08,0,-0.01,-0.004,0.004
-7.950e-08,0,-0.006,-0.008,0.008
-7.930e-08,-0.004,-0.01,-0.008,0.008
-7.910e-08,0,-0.002,-0.004,0.004
-7.890e-08,0,-0.01,-0.004,0.008
-7.870e-08,0,-0.002,-0.004,0.004
-7.850e-08,-0.004,-0.01,-0.004,0.004
-7.830e-08,0,-0.006,-0.012,0.008
-7.810e-08,-0.008,-0.014,-0.004,0.008
-7.790e-08,0,-0.01,-0.008,0.004
-7.770e-08,-0.008,-0.006,-0.004,0.004
-7.750e-08,0,-0.002,-0.004,0.012
-7.730e-08,-0.008,-0.006,-0.004,0.008
-7.710e-08,-0.008,-0.002,-0.012,0.008
-7.690e-08,-0.008,-0.002,-0.008,0
-7.670e-08,0,0.006,-0.008,0
-7.650e-08,-0.004,-0.002,0.004,-0.004
-7.630e-08,0,-0.002,-0.008,0.004
-7.610e-08,-0.004,-0.002,-0.008,0.004
-7.590e-08,0,-0.002,-0.012,0.008
-7.570e-08,-0.008,-0.01,4.44089e-17,0.004
-7.550e-08,0,-0.006,-0.012,0.004
-7.530e-08,-0.008,-0.006,-0.004,0
-7.510e-08,0,-0.006,-0.004,0.008
-7.490e-08,-0.008,-0.01,0.004,0.008
-7.470e-08,0,-0.01,-0.008,0.012
-7.450e-08,-0.004,-0.014,-0.004,0.008
-7.430e-08,-0.008,-0.002,-0.012,0.008
-7.410e-08,-0.008,-0.002,-0.012,0.008
-7.390e-08,0,-0.002,-0.008,0.004
-7.370e-08,-0.008,-0.006,4.44089e-17,0
-7.350e-08,0,-0.002,-0.004,0.004
-7.330e-08,-0.004,-0.006,-0.008,0.008
-7.310e-08,0,0.002,-0.008,0
-7.290e-08,-0.008,-0.006,-0.008,0
-7.270e-08,-0.004,-0.002,-0.004,0.004
-7.250e-08,-0.008,-0.014,-0.004,0.004
-7.230e-08,-0.004,-0.002,4.44089e-17,0
-7.210e-08,-0.008,-0.002,-0.004,0.004
-7.190e-08,0,0.002,-0.008,0.008
-7.170e-08,-0.008,0.002,-0.004,0
-7.150e-08,-0.008,0.002,-0.004,0
-7.130e-08,-0.012,0.002,4.44089e-17,0.004
-7.110e-08,0,-0.002,-0.004,0
-7.090e-08,-0.008,-0.002,-0.004,0.008
-7.070e-08,-0.008,-0.002,-0.012,0.004
-7.050e-08,-0.008,-0.006,-0.008,0.008
-7.030e-08,0,-0.01,-0.012,0.004
-7.010e-08,-0.004,-0.006,-0.008,0.004
-6.990e-08,0,-0.002,-0.004,0.004
-6.970e-08,-0.008,-0.006,-0.004,0
-6.950e-08,0,0.002,-0.004,0
-6.930e-08,0,-0.01,4.44089e-17,0.008
-6.910e-08,0,-0.002,-0.012,0
-6.890e-08,-0.008,-0.002,-0.008,0
-6.870e-08,-0.004,0.002,-0.016,0
-6.850e-08,-0.008,-0.014,-0.004,0.008
-6.830e-08,-0.008,-0.01,-0.004,0.012
-6.810e-08,-0.008,-0.006,-0.008,0
-6.790e-08,0,-0.002,-0.008,0
-6.770e-08,-0.008,-0.006,-0.004,0.008
-6.750e-08,-0.004,0.002,-0.008,0.008
-6.730e-08,-0.004,-0.006,-0.004,0.008
-6.710e-08,-0.004,-0.006,-0.008,0.012
-6.690e-08,-0.004,-0.006,4.44089e-17,0
-6.670e-08,0,-0.006,-0.008,0.008
-6.650e-08,0,-0.006,-0.012,0.004
-6.630e-08,-0.004,-0.002,-0.012,0.004
-6.610e-08,-0.004,0.002,-0.004,0.008
-6.590e-08,0.004,-0.002,-0.004,0.008
-6.570e-08,-0.008,-0.01,-0.004,0.004
-6.550e-08,0,0.002,-0.008,0.004
-6.530e-08,-0.004,-0.002,-0.008,0.004
-6.510e-08,0,-0.01,-0.012,0.004
-6.490e-08,-0.004,-0.01,-0.004,0
-6.470e-08,0,-0.002,-0.004,-0.004
-6.450e-08,-0.008,-0.006,-0.004,0.008
-6.430e-08,0,-0.002,-0.008,0.008
-6.410e-08,0,-0.01,4.44089e-17,0.008
-6.390e-08,0,-0.006,-0.008,0.004
-6.370e-08,-0.004,-0.01,-0.004,0.008
-6.350e-08,0.004,0.002,-0.004,0.008
-6.330e-08,0,-0.002,4.44089e-17,0.008
-6.310e-08,0.004,-0.006,-0.008,0
-6.290e-08,-0.008,-0.006,-0.004,0.008
-6.270e-08,0,-0.002,-0.012,0.004
-6.250e-08,0,-0.006,-0.004,0.004
-6.230e-08,0,0.002,-0.004,0.008
-6.210e-08,-0.004,0.002,-0.008,0.008
-6.190e-08,-0.004,-0.002,-0.016,0.004
-6.170e-08,-0.008,-0.01,-0.008,0.008
-6.150e-08,-0.004,-0.002,-0.012,0.008
-6.130e-08,-0.004,-0.006,-0.008,0
-6.110e-08,0,-0.01,4.44089e-17,0.008
-6.090e-08,0,-0.002,4.44089e-17,0.004
-6.070e-08,0,-0.006,-0.012,0
-6.050e-08,-0.004,-0.01,-0.012,0.004
-6.030e-08,0,-0.002,-0.016,0.004
-6.010e-08,-0.004,-0.01,-0.004,0.004
-5.990e-08,0,-0.006,-0.004,0
-5.970e-08,-0.004,-0.01,0.004,0
-5.950e-08,0,-0.002,-0.008,0
-5.930e-08,-0.004,-0.006,-0.008,0
-5.910e-08,0,-0.01,-0.004,0.008
-5.890e-08,0,-0.006,4.44089e-17,0.004
-5.870e-08,0,-0.002,4.44089e-17,-0.004
-5.850e-08,0,0.002,4.44089e-17,0.004
-5.830e-08,0,0.002,-0.008,0.008
-5.810e-08,-0.004,-0.01,-0.004,0.008
-5.790e-08,0,-0.002,-0.008,0
-5.770e-08,-0.004,-0.002,-0.004,0.004
-5.750e-08,-0.004,-0.002,-0.008,-0.004
-5.730e-08,-0.008,0.002,-0.004,0.008
-5.710e-08,0,0.002,-0.008,0.008
-5.690e-08,0,-0.002,-0.012,0.004
-5.670e-08,0,-0.006,-0.012,0.008
-5.650e-08,-0.004,-0.01,-0.008,0.008
-5.630e-08,0,-0.002,4.44089e-17,0.008
-5.610e-08,-0.008,-0.006,4.44089e-17,0
-5.590e-08,0,-0.002,-0.008,0.004
-5.570e-08,-0.004,0.002,-0.004,0.004
-5.550e-08,-0.004,-0.002,-0.008,0.004
-5.530e-08,-0.008,-0.01,-0.008,0.008
-5.510e-08,-0.004,-0.002,-0.008,0.008
-5.490e-08,-0.008,-0.006,-0.004,0.004
-5.470e-08,0,-0.002,-0.008,-0.004
-5.450e-08,-0.008,-0.002,-0.008,0.004
-5.430e-08,0,-0.006,-0.004,0.016
-5.410e-08,-0.004,-0.01,4.44089e-17,0.008
-5.390e-08,0.004,-0.01,-0.008,0
-5.370e-08,-0.008,-0.002,-0.008,-0.008
-5.350e-08,-0.004,0.002,-0.008,0
-5.330e-08,-0.008,-0.002,4.44089e-17,0.008
-5.310e-08,-0.008,-0.002,-0.004,0.008
-5.290e-08,-0.004,-0.006,4.44089e-17,0.004
-5.270e-08,0,-0.002,-0.008,0.008
-5.250e-08,-0.004,-0.01,-0.004,0.008
-5.230e-08,-0.004,-0.002,-0.004,0.008
-5.210e-08,-0.004,-0.006,-0.004,0.008
-5.190e-08,0,-0.002,-0.016,0.008
-5.170e-08,-0.008,-0.002,-0.008,0.004
-5.150e-08,0.004,0.002,-0.012,0.008
-5.130e-08,-0.008,-0.006,4.44089e-17,0
-5.110e-08,0,-0.014,4.44089e-17,0.004
-5.090e-08,0,-0.006,-0.008,0.008
-5.070e-08,0,-0.006,-0.004,0
-5.050e-08,-0.008,-0.01,-0.008,0.004
-5.030e-08,0.004,-0.01,-0.008,0.008
-5.010e-08,-0.012,-0.006,-0.008,0.008
-4.990e-08,-0.008,-0.006,-0.008,0.004
-4.970e-08,-0.008,-0.01,4.44089e-17,0.008
-4.950e-08,-0.004,-0.002,-0.004,0.004
-4.930e-08,-0.008,-0.01,-0.004,0.008
-4.910e-08,0,-0.002,-0.008,0.004
-4.890e-08,-0.004,0.006,-0.008,0.008
-4.870e-08,0.004,0.002,-0.008,0.004
-4.850e-08,0,-0.002,-0.004,0.008
-4.830e-08,0,0.006,-0.008,0.008
-4.810e-08,0,-0.006,-0.004,0.008
-4.790e-08,0,0.002,-0.008,0.012
-4.770e-08,-0.004,-0.002,-0.012,0.004
-4.750e-08,0,0.002,-0.008,0.004
-4.730e-08,-0.004,-0.002,-0.008,0
-4.710e-08,0,0.002,-0.004,0.008
-4.690e-08,0,-0.002,-0.004,0.008
-4.670e-08,0,-0.014,-0.008,0.008
-4.650e-08,-0.004,-0.01,-0.004,0.008
-4.630e-08,0,-0.006,-0.008,0.004
-4.610e-08,-0.004,-0.002,-0.004,0.008
-4.590e-08,0,0.002,-0.008,0.004
-4.570e-08,-0.004,-0.006,-0.004,0.004
-4.550e-08,0,-0.01,-0.008,0.008
-4.530e-08,0,-0.006,-0.004,0.008
-4.510e-08,-0.004,0.002,-0.004,0.008
-4.490e-08,-0.012,-0.006,0.004,0
-4.470e-08,-0.004,-0.002,-0.008,0
-4.450e-08,-0.004,0.002,-0.008,0.008
-4.430e-08,0,0.002,-0.012,0
-4.410e-08,0,-0.002,-0.008,0.004
-4.390e-08,0,0.002,-0.008,0.004
-4.370e-08,-0.004,-0.002,-0.004,0.004
-4.350e-08,0,0.002,-0.008,0.004
-4.330e-08,-0.004,-0.01,4.44089e-17,0.004
-4.310e-08,0,-0.002,-0.008,0.004
-4.290e-08,-0.008,-0.01,-0.004,0.004
-4.270e-08,-0.008,-0.01,-0.004,0.008
-4.250e-08,-0.004,-0.006,-0.004,0.004
-4.230e-08,0,-0.002,-0.004,0.008
-4.210e-08,-0.004,-0.002,-0.008,0.004
-4.190e-08,0,0.006,-0.008,0
-4.170e-08,-0.004,-0.006,-0.004,0.008
-4.150e-08,0,-0.002,-0.008,0.008
-4.130e-08,-0.016,-0.01,4.44089e-17,0.008
-4.110e-08,-0.008,-0.006,-0.004,0
-4.090e-08,0,-0.01,-0.012,0.004
-4.070e-08,0.004,-0.006,-0.008,0
-4.050e-08,0,-0.002,-0.004,0.004
-4.030e-08,-0.004,-0.002,-0.016,0.008
-4.010e-08,-0.008,-0.002,-0.008,0.008
-3.990e-08,0,-0.002,-0.008,0.008
-3.970e-08,-0.004,-0.014,4.44089e-17,0.008
-3.950e-08,0,-0.01,-0.004,0.008
-3.930e-08,0,-0.014,-0.008,0.008
-3.910e-08,0,-0.002,-0.008,0.008
-3.890e-08,-0.008,-0.002,-0.004,0.004
-3.870e-08,-0.008,-0.01,-0.008,0.004
-3.850e-08,0,-0.006,-0.008,0.004
-3.830e-08,0.004,-0.002,-0.012,0
-3.810e-08,0,-0.01,-0.004,0.008
-3.790e-08,0,-0.002,-0.004,0.004
-3.770e-08,-0.004,-0.002,-0.004,0.008
-3.750e-08,-0.008,-0.002,-0.008,0
-3.730e-08,0,-0.006,-0.004,0.004
-3.710e-08,0,-0.006,-0.008,0.004
-3.690e-08,-0.004,-0.006,-0.004,0.004
-3.670e-08,0,-0.01,-0.012,0
-3.650e-08,-0.008,-0.002,-0.008,0.004
-3.630e-08,-0.004,-0.002,-0.008,0.004
-3.610e-08,-0.004,-0.006,-0.004,0
-3.590e-08,-0.004,0.002,-0.008,0
-3.570e-08,-0.004,-0.002,4.44089e-17,0.008
-3.550e-08,0,-0.002,-0.004,0.008
-3.530e-08,-0.008,-0.002,-0.008,0.004
-3.510e-08,0,-0.002,-0.012,0
-3.490e-08,-0.012,-0.01,-0.008,0.004
-3.470e-08,-0.004,-0.002,-0.004,0
-3.450e-08,-0.008,-0.002,-0.004,0
-3.430e-08,0,0.006,-0.012,0
-3.410e-08,-0.008,-0.006,4.44089e-17,0
-3.390e-08,-0.008,-0.002,-0.012,0
-3.370e-08,-0.004,-0.006,-0.008,-0.004
-3.350e-08,0,0.002,-0.012,0.008
-3.330e-08,-0.004,-0.006,-0.008,0.008
-3.310e-08,-0.004,-0.006,-0.004,0
-3.290e-08,-0.008,-0.01,-0.008,0.008
-3.270e-08,-0.004,-0.006,-0.012,0.004
-3.250e-08,0,-0.002,-0.008,0.008
-3.230e-08,0,-0.01,-0.008,0
-3.210e-08,-0.004,-0.006,-0.004,0.012
-3.190e-08,0,0.002,-0.012,0.008
-3.170e-08,-0.008,-0.006,-0.012,0.004
-3.150e-08,0,-0.002,-0.008,0.004
-3.130e-08,0,-0.006,-0.008,0.008
-3.110e-08,0,-0.006,-0.008,0
-3.090e-08,0,-0.006,-0.008,0
-3.070e-08,-0.004,-0.002,-0.004,0.004
-3.050e-08,-0.008,-0.014,-0.004,0.004
-3.030e-08,0,-0.006,-0.008,0.004
-3.010e-08,-0.008,-0.01,-0.008,0.004
-2.990e-08,0,-0.002,-0.008,0
-2.970e-08,-0.004,-0.01,-0.008,0.008
-2.950e-08,0.004,0.002,-0.008,-0.004
-2.930e-08,0.004,-0.002,-0.008,0.004
-2.910e-08,0,-0.002,-0.008,0.008
-2.890e-08,0,-0.002,-0.004,0.004
-2.870e-08,0,-0.002,4.44089e-17,0.008
-2.850e-08,0,-0.002,-0.004,0.004
-2.830e-08,0,-0.002,-0.012,0.004
-2.810e-08,0,-0.002,-0.008,0.004
-2.790e-08,0.004,0.002,-0.004,0.004
-2.770e-08,-0.004,0.002,-0.004,0.004
-2.750e-08,-0.004,0.002,-0.008,-0.004
-2.730e-08,-0.004,-0.002,-0.004,0.004
-2.710e-08,0,-0.006,-0.008,0.004
-2.690e-08,-0.008,-0.006,4.44089e-17,-0.004
-2.670e-08,0,-0.002,-0.004,0.008
-2.650e-08,-0.008,0.002,0.004,0.004
-2.630e-08,-0.004,0.002,-0.008,0
-2.610e-08,-0.012,0.002,-0.008,0
-2.590e-08,0,-0.002,-0.004,0.008
-2.570e-08,-0.008,-0.01,-0.004,0.004
-2.550e-08,0,0.002,-0.012,0
-2.530e-08,0,-0.002,-0.008,-0.004
-2.510e-08,0,-0.006,-0.004,0
-2.490e-08,0,-0.002,-0.008,0
-2.470e-08,0,-0.006,-0.008,0.004
-2.450e-08,-0.012,-0.006,4.44089e-17,0.008
-2.430e-08,-0.008,-0.002,-0.008,0.008
-2.410e-08,-0.004,-0.006,-0.004,0
-2.390e-08,0,-0.002,-0.004,0.004
-2.370e-08,-0.004,-0.002,-0.008,0.004
-2.350e-08,0,-0.002,-0.012,0.008
-2.330e-08,-0.004,-0.006,4.44089e-17,0.008
-2.310e-08,-0.004,-0.002,-0.008,0.004
-2.290e-08,-0.004,-0.006,-0.004,0.008
-2.270e-08,0,-0.002,-0.008,0.004
-2.250e-08,-0.008,-0.002,-0.004,0
-2.230e-08,-0.004,0.002,-0.004,0.004
-2.210e-08,-0.004,-0.002,-0.008,0.004
-2.190e-08,0.004,-0.002,-0.008,0
-2.170e-08,0,-0.01,4.44089e-17,0
-2.150e-08,-0.008,-0.006,-0.008,0.004
-2.130e-08,-0.008,-0.01,-0.004,0
-2.110e-08,-0.004,-0.006,-0.008,0
-2.090e-08,-0.004,-0.014,-0.008,0.008
-2.070e-08,0,-0.006,-0.012,0.008
-2.050e-08,-0.008,-0.002,-0.004,0.004
-2.030e-08,0,-0.006,-0.008,0.008
-2.010e-08,-0.004,-0.006,-0.008,0.008
-1.990e-08,0.004,0.002,-0.004,0.008
-1.970e-08,-0.008,-0.006,4.44089e-17,0
-1.950e-08,-0.004,-0.002,-0.008,0.004
-1.930e-08,-0.008,-0.006,4.44089e-17,0.012
-1.910e-08,0,0.002,-0.004,0.008
-1.890e-08,0,-0.002,-0.008,0.004
-1.870e-08,0,0.002,-0.004,0.004
-1.850e-08,0,-0.002,4.44089e-17,0.004
-1.830e-08,0,-0.002,-0.008,0
-1.810e-08,-0.008,-0.002,-0.008,0.004
-1.790e-08,0,-0.006,-0.008,0
-1.770e-08,-0.008,-0.01,-0.008,0
-1.750e-08,-0.004,-0.006,-0.012,0
-1.730e-08,-0.008,-0.006,-0.008,0
-1.710e-08,-0.004,-0.01,-0.008,0
-1.690e-08,-0.008,-0.01,4.44089e-17,0.004
-1.670e-08,0,-0.006,-0.008,0
-1.650e-08,-0.004,-0.006,4.44089e-17,0.004
-1.630e-08,0,-0.006,-0.008,0.008
-1.610e-08,-0.004,-0.006,4.44089e-17,0.004
-1.590e-08,-0.004,-0.002,-0.004,0.008
-1.570e-08,-0.004,0.002,-0.004,0.012
-1.550e-08,0,0.002,-0.008,0.008
-1.530e-08,-0.008,-0.002,-0.004,0.004
-1.510e-08,-0.004,0.002,-0.008,0
-1.490e-08,-0.008,-0.002,-0.004,0.004
-1.470e-08,0,0.002,-0.004,0
-1.450e-08,0,-0.006,0.004,-0.004
-1.430e-08,0,0.002,-0.004,-0.004
-1.410e-08,-0.004,-0.006,4.44089e-17,0
-1.390e-08,-0.004,-0.002,-0.008,0.004
-1.370e-08,0,0.002,-0.008,0.004
-1.350e-08,0,-0.002,-0.008,0.008
-1.330e-08,-0.008,0.002,-0.008,0.008
-1.310e-08,-0.004,-0.002,-0.004,0
-1.290e-08,-0.008,-0.006,4.44089e-17,0.004
-1.270e-08,0,0.002,-0.012,0.004
-1.250e-08,0,0.002,-0.004,0
-1.230e-08,0.004,0.006,4.44089e-17,0.004
-1.210e-08,-0.008,-0.002,4.44089e-17,0.008
-1.190e-08,-0.004,-0.006,-0.008,0.004
-1.170e-08,-0.008,-0.002,-0.008,0.008
-1.150e-08,-0.004,-0.002,4.44089e-17,0.008
-1.130e-08,-0.004,-0.002,-0.008,0.004
-1.110e-08,0,-0.002,-0.008,0.008
-1.090e-08,0,-0.006,-0.008,0.004
-1.070e-08,0,-0.002,-0.012,0
-1.050e-08,-0.008,-0.002,-0.004,0.004
-1.030e-08,0,0.002,-0.008,0
-1.010e-08,-0.004,-0.006,-0.004,0.004
-9.900e-09,0,0.002,-0.004,0.004
-9.700e-09,-0.008,-0.006,4.44089e-17,-0.004
-9.500e-09,0,0.006,-0.008,0.008
-9.300e-09,-0.004,-0.002,-0.004,0.004
-9.100e-09,-0.008,0.002,-0.008,0
-8.900e-09,-0.008,-0.002,4.44089e-17,-0.004
-8.700e-09,-0.004,-0.002,-0.012,0.008
-8.500e-09,-0.004,-0.006,-0.008,0
-8.300e-09,0,-0.002,-0.004,0.004
-8.100e-09,0,-0.002,-0.004,0.008
-7.900e-09,0.004,0.002,-0.008,0
-7.700e-09,-0.008,-0.01,-0.004,0.004
-7.500e-09,-0.004,-0.01,-0.008,0
-7.300e-09,0,-0.01,-0.008,0.004
-7.100e-09,-0.004,-0.01,-0.008,0.004
-6.900e-09,-0.004,-0.002,-0.004,0.004
-6.700e-09,-0.004,-0.006,4.44089e-17,0.004
-6.500e-09,-0.004,-0.002,4.44089e-17,0
-6.300e-09,-0.004,-0.006,4.44089e-17,0.004
-6.100e-09,-0.004,-0.002,-0.004,0.008
-5.900e-09,0.008,-0.002,-0.008,0
-5.700e-09,-0.008,-0.002,0.004,0
-5.500e-09,-0.004,-0.002,-0.004,0
-5.300e-09,-0.012,-0.006,4.44089e-17,0.004
-5.100e-09,0,-0.002,-0.004,0.004
-4.900e-09,-0.008,-0.006,0.004,0.004
-4.700e-09,-0.004,-0.002,-0.008,0.004
-4.500e-09,-0.004,-0.002,-0.008,0.004
-4.300e-09,0.004,-0.002,-0.008,0.008
-4.100e-09,0,-0.01,-0.008,0.008
-3.900e-09,0,-0.002,-0.008,0.004
-3.700e-09,-0.004,0.002,-0.008,0.004
-3.500e-09,0,-0.006,-0.008,0.004
-3.300e-09,-0.008,-0.01,-0.004,0.004
-3.100e-09,-0.004,-0.002,-0.008,0
-2.900e-09,-0.004,-0.002,-0.004,0.004
-2.700e-09,-0.004,0.006,-0.004,0
-2.500e-09,-0.004,0.002,-0.004,0.004
-2.300e-09,0.004,0.002,-0.008,0.004
-2.100e-09,-0.012,-0.002,-0.008,0.008
-1.900e-09,0,-0.002,-0.008,0.012
-1.700e-09,-0.004,-0.002,-0.004,0.004
-1.500e-09,0,-0.002,-0.004,-0.004
-1.300e-09,-0.004,-0.002,4.44089e-17,0.004
-1.100e-09,0,-0.002,-0.004,0.008
-9.000e-10,-0.004,-0.002,-0.012,-0.004
-7.000e-10,0.004,-0.002,-0.008,0
-5.000e-10,0.008,-0.006,-0.004,0
-3.000e-10,0.036,0.002,-0.008,0.004
-1.000e-10,0.116,-0.002,-0.004,0
1.000e-10,0.244,-0.002,-0.008,0.004
3.000e-10,0.344,-0.006,0.004,0.004
5.000e-10,0.312,-0.002,4.44089e-17,0.008
7.000e-10,0.188,-0.01,4.44089e-17,0.016
9.000e-10,0.088,-0.002,-0.004,0.02
1.100e-09,0.052,-0.006,-0.012,0.032
1.300e-09,0.068,0.002,-0.004,0.06
1.500e-09,0.084,-0.006,4.44089e-17,0.108
1.700e-09,0.068,-0.002,4.44089e-17,0.176
1.900e-09,0.02,0.002,-0.004,0.252
2.100e-09,-0.004,0.006,4.44089e-17,0.332
2.300e-09,-0.008,0.006,0.004,0.396
2.500e-09,0,0.022,0.008,0.464
2.700e-09,-0.004,0.034,0.032,0.504
2.900e-09,0.008,0.074,0.06,0.536
3.100e-09,0,0.138,0.128,0.548
3.300e-09,0,0.198,0.216,0.56
3.500e-09,0,0.262,0.304,0.552
3.700e-09,-0.004,0.318,0.38,0.524
3.900e-09,-0.008,0.358,0.436,0.484
4.100e-09,0,0.394,0.48,0.44
4.300e-09,0,0.41,0.504,0.404
4.500e-09,0,0.406,0.496,0.364
4.700e-09,-0.004,0.394,0.468,0.308
4.900e-09,0,0.362,0.42,0.268
5.100e-09,0,0.326,0.376,0.224
5.300e-09,0.008,0.286,0.316,0.192
5.500e-09,-0.008,0.234,0.264,0.152
5.700e-09,-0.004,0.186,0.212,0.112
5.900e-09,-0.004,0.158,0.164,0.088
6.100e-09,0,0.13,0.132,0.064
6.300e-09,-0.008,0.098,0.104,0.036
6.500e-09,-0.004,0.078,0.072,0.02
6.700e-09,-0.004,0.058,0.052,0.012
6.900e-09,0.004,0.046,0.04,0.004
7.100e-09,-0.008,0.03,0.036,0.008
7.300e-09,0,0.018,0.028,-0.004
7.500e-09,-0.004,0.014,0.016,0
7.700e-09,0.004,0.01,0.02,-0.008
7.900e-09,-0.008,0.014,0.016,0
8.100e-09,0,0.022,0.012,-0.004
8.300e-09,0,0.014,0.016,-0.008
8.500e-09,0,0.018,0.016,-0.004
8.700e-09,-0.012,0.01,0.016,0
8.900e-09,-0.008,0.01,0.02,0
9.100e-09,-0.008,0.01,0.016,0.012
9.300e-09,0,0.01,0.004,0.024
9.500e-09,0.004,-0.002,4.44089e-17,0.032
9.700e-09,0,0.002,-0.012,0.036
9.900e-09,-0.004,-0.014,-0.008,0.048
1.010e-08,-0.008,-0.01,-0.012,0.044
1.030e-08,-0.012,-0.018,-0.008,0.048
1.050e-08,0,-0.006,-0.004,0.04
1.070e-08,-0.004,-0.006,4.44089e-17,0.032
1.090e-08,0,-0.002,4.44089e-17,0.032
1.110e-08,0,0.002,0.008,0.02
1.130e-08,0,0.002,0.004,0.016
1.150e-08,-0.004,0.002,0.016,0.008
1.170e-08,-0.004,0.002,0.004,0.004
1.190e-08,-0.012,0.006,0.008,-0.008
1.210e-08,-0.008,0.01,0.012,-0.012
1.230e-08,-0.004,0.006,0.008,-0.016
1.250e-08,0,0.002,-0.008,-0.016
1.270e-08,-0.004,-0.002,-0.004,-0.024
1.290e-08,0,-0.002,-0.008,-0.02
1.310e-08,-0.008,-0.002,-0.004,-0.012
1.330e-08,0,-0.002,-0.008,-0.012
1.350e-08,-0.008,-0.006,-0.008,-0.012
1.370e-08,0,-0.01,-0.008,0
1.390e-08,-0.004,-0.01,-0.004,0.004
1.410e-08,0,-0.01,-0.008,0.024
1.430e-08,0.008,-0.006,-0.012,0.016
1.450e-08,0.004,-0.006,-0.016,0.012
1.470e-08,-0.008,-0.01,-0.008,0.012
1.490e-08,-0.004,0.002,-0.004,0.016
1.510e-08,-0.004,-0.002,-0.004,0.02
1.530e-08,0.004,0.006,-0.008,0.02
1.550e-08,-0.004,0.006,0.008,0.024
1.570e-08,0,-0.002,4.44089e-17,0.028
1.590e-08,-0.008,-0.002,-0.008,0.016
1.610e-08,0,0.002,-0.008,0.008
1.630e-08,-0.004,-0.002,0.004,0.012
1.650e-08,-0.004,-0.002,-0.004,0.02
1.670e-08,-0.008,-0.01,0.004,0.008
1.690e-08,0,-0.01,-0.008,0
1.710e-08,-0.008,-0.006,-0.012,0
1.730e-08,0,-0.002,-0.016,-0.004
1.750e-08,-0.008,-0.01,-0.012,-0.008
1.770e-08,-0.004,0.002,-0.016,-0.012
1.790e-08,-0.008,-0.006,-0.004,-0.016
1.810e-08,-0.004,-0.006,-0.008,-0.012
1.830e-08,-0.008,-0.006,-0.004,-0.004
1.850e-08,-0.004,-0.006,-0.008,0
1.870e-08,-0.004,-0.014,-0.004,0.008
1.890e-08,0,-0.006,-0.004,0
1.910e-08,-0.008,-0.002,-0.004,0
1.930e-08,0,0.002,-0.008,0.008
1.950e-08,-0.012,0.002,-0.004,0.008
1.970e-08,-0.012,-0.002,-0.004,0.008
1.990e-08,-0.012,-0.006,-0.004,0.012
2.010e-08,-0.008,-0.002,-0.008,0.012
2.030e-08,-0.004,-0.002,4.44089e-17,0.02
2.050e-08,0.004,-0.002,-0.012,0.02
2.070e-08,-0.008,-0.01,4.44089e-17,0.012
2.090e-08,-0.008,-0.002,-0.008,0.008
2.110e-08,-0.012,-0.006,-0.008,0.008
2.130e-08,-0.004,-0.006,-0.012,0.02
2.150e-08,-0.004,-0.002,-0.012,0.02
2.170e-08,-0.004,-0.002,-0.016,0.012
2.190e-08,-0.004,-0.006,-0.012,0.008
2.210e-08,0,-0.002,4.44089e-17,0.004
2.230e-08,-0.008,-0.006,4.44089e-17,0.004
2.250e-08,-0.004,-0.002,-0.008,0.004
2.270e-08,-0.012,-0.002,-0.008,-0.004
2.290e-08,-0.008,0.002,-0.004,-0.004
2.310e-08,-0.008,-0.006,4.44089e-17,-0.004
2.330e-08,0,0.006,-0.004,0
2.350e-08,-0.008,0.002,0.004,0.004
2.370e-08,0,-0.002,-0.008,-0.004
2.390e-08,-0.004,-0.006,-0.008,0.004
2.410e-08,0.004,-0.006,-0.008,0.008
2.430e-08,0,-0.006,-0.004,0.004
2.450e-08,0,-0.006,-0.004,0
2.470e-08,-0.004,-0.006,-0.004,0.004
2.490e-08,0,-0.006,-0.008,0
2.510e-08,-0.004,-0.014,-0.008,0.012
2.530e-08,-0.004,-0.006,4.44089e-17,0.008
2.550e-08,-0.004,-0.002,-0.004,0.012
2.570e-08,0.004,0.006,-0.008,0.012
2.590e-08,-0.004,0.002,4.44089e-17,0.008
2.610e-08,0,0.01,-0.008,0.008
2.630e-08,-0.008,0.006,-0.004,0.008
2.650e-08,-0.004,-0.002,-0.004,0.008
2.670e-08,0,-0.01,0.004,0.012
2.690e-08,0,0.002,-0.004,0.004
2.710e-08,-0.008,0.006,-0.008,0.004
2.730e-08,-0.004,0.006,-0.004,0.004
2.750e-08,-0.008,-0.002,4.44089e-17,0.004
2.770e-08,-0.004,0.006,4.44089e-17,0.004
2.790e-08,-0.004,-0.006,-0.004,-0.004
2.810e-08,-0.004,-0.002,-0.008,0
2.830e-08,-0.008,-0.006,-0.004,0.004
2.850e-08,0,-0.002,-0.008,0.008
2.870e-08,-0.008,-0.01,-0.008,0
2.890e-08,-0.008,-0.006,-0.004,0.004
2.910e-08,-0.008,-0.002,-0.008,0
2.930e-08,-0.004,-0.006,-0.008,0.008
2.950e-08,-0.008,-0.01,-0.004,0.004
2.970e-08,0,-0.002,-0.004,0.012
2.990e-08,-0.008,-0.002,-0.004,0.012
3.010e-08,0,0.002,-0.008,0.008
3.030e-08,-0.004,0.002,-0.004,0.008
3.050e-08,-0.004,0.006,-0.004,0.008
3.070e-08,-0.008,0.002,0.004,0.008
3.090e-08,-0.008,0.002,0.004,0
3.110e-08,-0.004,-0.002,0.004,0.004
3.130e-08,0,0.006,-0.004,0.008
3.150e-08,-0.008,-0.002,0.004,0.004
3.170e-08,-0.008,-0.002,-0.008,0.004
3.190e-08,-0.008,-0.01,4.44089e-17,0.004
3.210e-08,-0.008,0.006,-0.008,0.008
3.230e-08,-0.008,-0.006,4.44089e-17,0
3.250e-08,-0.004,-0.01,-0.004,0.004
3.270e-08,-0.008,-0.006,4.44089e-17,0.008
3.290e-08,0,-0.002,-0.016,0
3.310e-08,-0.004,-0.01,-0.008,0.004
3.330e-08,-0.004,-0.006,-0.004,0
3.350e-08,-0.008,-0.01,4.44089e-17,0
3.370e-08,0,-0.002,-0.008,0.008
3.390e-08,-0.004,-0.01,-0.008,0.008
3.410e-08,-0.004,-0.006,-0.008,0.012
3.430e-08,-0.008,-0.01,-0.008,0.012
3.450e-08,0.008,-0.002,-0.008,0.016
3.470e-08,-0.008,-0.002,-0.008,0.012
3.490e-08,0.004,-0.002,-0.004,0.004
3.510e-08,-0.008,-0.01,4.44089e-17,0
3.530e-08,0,-0.014,-0.008,-0.004
3.550e-08,-0.004,-0.002,-0.008,0.004
3.570e-08,-0.004,-0.006,-0.004,0.004
3.590e-08,-0.008,-0.002,-0.008,0.004
3.610e-08,0,0.002,-0.012,0.004
3.630e-08,-0.004,-0.006,-0.008,0.008
3.650e-08,0,-0.002,-0.012,0.008
3.670e-08,-0.004,-0.01,4.44089e-17,0.004
3.690e-08,-0.004,-0.006,-0.004,0.008
3.710e-08,-0.008,-0.01,4.44089e-17,0.008
3.730e-08,0,-0.002,-0.012,0.008
3.750e-08,-0.008,-0.01,-0.004,0
3.770e-08,-0.008,-0.002,-0.012,0
3.790e-08,-0.008,-0.006,-0.008,0
3.810e-08,-0.004,-0.006,-0.004,0.008
3.830e-08,-0.008,-0.002,-0.008,0.008
3.850e-08,0,0.006,-0.008,0.008
3.870e-08,0,-0.002,-0.004,0.008
3.890e-08,-0.004,-0.002,-0.004,0.008
3.910e-08,-0.008,-0.006,-0.004,0.004
3.930e-08,0,-0.01,-0.008,0.008
3.950e-08,-0.008,-0.014,-0.008,0.004
3.970e-08,0.004,-0.006,-0.008,0.008
3.990e-08,-0.004,0.002,4.44089e-17,0.012
4.010e-08,-0.004,-0.002,-0.008,0.008
4.030e-08,-0.008,-0.01,-0.008,0.004
4.050e-08,-0.004,-0.002,-0.008,-0.004
4.070e-08,-0.004,-0.002,-0.012,0
4.090e-08,0.004,-0.002,-0.008,0.004
4.110e-08,-0.008,-0.002,-0.004,0.008
4.130e-08,-0.008,0.01,-0.008,0.012
4.150e-08,-0.008,-0.002,-0.008,0.004
4.170e-08,0,-0.002,-0.004,0
4.190e-08,-0.008,-0.002,0.004,0.004
4.210e-08,0,0.002,4.44089e-17,0.004
4.230e-08,-0.004,-0.002,4.44089e-17,0
4.250e-08,0,0.002,-0.008,0.004
4.270e-08,-0.004,-0.006,-0.008,0.008
4.290e-08,0,0.002,-0.008,0.004
4.310e-08,-0.008,-0.002,-0.004,0.008
4.330e-08,0.004,-0.002,-0.008,0.008
4.350e-08,-0.008,-0.006,-0.004,0
4.370e-08,0,0.002,-0.008,0
4.390e-08,-0.008,-0.002,4.44089e-17,0.008
4.410e-08,-0.008,-0.002,-0.008,0.004
4.430e-08,-0.008,-0.006,-0.008,0.008
4.450e-08,0,-0.002,4.44089e-17,0.008
4.470e-08,-0.004,-0.002,0.008,0.008
4.490e-08,0,-0.006,-0.008,0
4.510e-08,-0.008,-0.006,-0.004,0.008
4.530e-08,0,-0.002,-0.008,0.008
4.550e-08,-0.004,-0.002,-0.008,0.004
4.570e-08,-0.004,0.006,-0.008,0.004
4.590e-08,-0.004,-0.002,-0.004,0
4.610e-08,0,-0.002,-0.008,0.008
4.630e-08,-0.004,-0.002,0.004,0.008
4.650e-08,-0.004,0.002,-0.004,0.008
4.670e-08,-0.004,-0.006,-0.004,0.004
4.690e-08,0.004,-0.002,-0.012,0
4.710e-08,-0.004,-0.006,-0.008,0
4.730e-08,0,0.002,-0.008,0.004
4.750e-08,-0.008,-0.006,0.004,0.004
4.770e-08,0,0.002,4.44089e-17,0.008
4.790e-08,0,-0.002,-0.004,0
4.810e-08,0,-0.002,-0.012,0
4.830e-08,-0.008,-0.006,-0.004,0.004
4.850e-08,-0.004,-0.002,-0.008,0.008
4.870e-08,-0.004,-0.006,4.44089e-17,0.004
4.890e-08,0,-0.006,-0.008,0.004
4.910e-08,-0.004,-0.006,-0.004,0.008
4.930e-08,-0.004,-0.01,-0.02,0.004
4.950e-08,0,-0.006,-0.008,0.012
4.970e-08,-0.004,-0.002,-0.004,0.008
4.990e-08,-0.008,0.002,-0.008,0.008
5.010e-08,0,0.006,-0.004,0.008
5.030e-08,-0.008,-0.002,-0.004,0.004
5.050e-08,-0.008,0.002,-0.008,0.008
5.070e-08,-0.008,-0.006,-0.004,0.008
5.090e-08,-0.004,0.002,-0.004,0
5.110e-08,0,-0.002,-0.008,0.008
5.130e-08,0,-0.006,-0.008,0.008
5.150e-08,-0.008,-0.006,4.44089e-17,-0.004
5.170e-08,-0.004,-0.002,-0.004,0.004
5.190e-08,-0.004,-0.002,4.44089e-17,0.008
5.210e-08,0,-0.002,-0.004,0.008
5.230e-08,-0.008,-0.002,4.44089e-17,0
5.250e-08,-0.008,-0.002,4.44089e-17,0.008
5.270e-08,-0.008,-0.006,-0.008,0.004
5.290e-08,-0.004,-0.002,-0.004,0
5.310e-08,-0.004,-0.006,4.44089e-17,0.004
5.330e-08,-0.004,-0.002,-0.008,0
5.350e-08,-0.004,-0.006,4.44089e-17,0.008
5.370e-08,0,-0.002,-0.004,0.008
5.390e-08,0,-0.01,-0.008,0.008
5.410e-08,0,0.002,-0.008,0.008
5.430e-08,0,-0.002,-0.004,0.008
5.450e-08,-0.008,-0.006,-0.004,0.008
5.470e-08,-0.008,-0.002,-0.004,0.008
5.490e-08,0,0.002,-0.008,0.008
5.510e-08,0,-0.006,-0.004,0.008
5.530e-08,-0.004,-0.002,-0.008,0.004
5.550e-08,-0.004,-0.01,-0.004,0.008
5.570e-08,0.008,-0.002,-0.008,0.008
5.590e-08,0,-0.002,-0.004,0.008
5.610e-08,0,-0.01,-0.012,0.008
5.630e-08,-0.004,-0.01,-0.008,0.004
5.650e-08,-0.004,-0.002,-0.008,0.004
5.670e-08,-0.008,-0.006,-0.004,0.004
5.690e-08,0,-0.002,-0.004,0
5.710e-08,-0.008,-0.002,-0.004,-0.008
5.730e-08,-0.004,-0.002,-0.012,0
5.750e-08,-0.008,-0.002,-0.008,0.004
5.770e-08,0,-0.002,-0.016,-0.008
5.790e-08,-0.004,-0.002,-0.004,-0.008
5.810e-08,0,-0.006,-0.008,-0.008
5.830e-08,-0.004,-0.006,-0.008,0
5.850e-08,0.004,-0.006,-0.012,0.004
5.870e-08,-0.004,-0.01,-0.008,0
5.890e-08,0,-0.002,-0.008,0.008
5.910e-08,-0.008,-0.006,-0.008,0
5.930e-08,0,-0.002,-0.008,0.008
5.950e-08,-0.012,0.002,-0.008,0.012
5.970e-08,0,0.002,-0.008,0.016
5.990e-08,-0.012,0.002,-0.004,0.012
6.010e-08,0,0.002,-0.008,0.008
6.030e-08,0,0.002,-0.004,0.004
6.050e-08,0,-0.006,-0.008,0.008
6.070e-08,-0.008,-0.006,-0.008,0.012
6.090e-08,-0.008,-0.002,-0.012,0.008
6.110e-08,-0.008,-0.002,-0.008,0.008
6.130e-08,0,-0.002,-0.012,0.004
6.150e-08,-0.004,-0.006,4.44089e-17,0
6.170e-08,0,-0.002,-0.008,0.004
6.190e-08,-0.008,-0.006,-0.004,0
6.210e-08,0,-0.002,-0.004,0.008
6.230e-08,-0.004,-0.006,-0.004,0.008
6.250e-08,0,0.002,-0.008,0.008
6.270e-08,-0.008,-0.002,-0.004,0.008
6.290e-08,-0.004,-0.002,4.44089e-17,0
6.310e-08,0.004,-0.014,4.44089e-17,0
6.330e-08,0,-0.002,-0.004,-0.004
6.350e-08,-0.004,-0.002,0.004,-0.004
6.370e-08,0,-0.002,-0.008,0
6.390e-08,-0.004,-0.01,-0.008,0.004
6.410e-08,0,-0.002,-0.012,0.004
6.430e-08,-0.008,-0.002,-0.004,0.012
6.450e-08,-0.004,-0.002,-0.004,0.004
6.470e-08,-0.008,-0.002,4.44089e-17,0.012
6.490e-08,0,0.006,4.44089e-17,0.012
6.510e-08,-0.008,-0.002,4.44089e-17,0.012
6.530e-08,0,0.01,-0.008,0.008
6.550e-08,-0.008,-0.002,4.44089e-17,0.008
6.570e-08,0,0.002,-0.008,0
6.590e-08,-0.008,-0.006,-0.008,0.008
6.610e-08,0,0.01,-0.008,0.008
6.630e-08,-0.008,0.002,-0.008,0.008
6.650e-08,0.004,-0.002,-0.012,0.008
6.670e-08,0,-0.006,4.44089e-17,0.004
6.690e-08,0,-0.002,-0.004,0.008
6.710e-08,-0.008,-0.002,-0.004,0.004
6.730e-08,-0.004,-0.002,-0.008,0.004
6.750e-08,-0.012,-0.002,-0.004,0
6.770e-08,0,-0.002,4.44089e-17,0.008
6.790e-08,-0.008,-0.002,0.004,0.008
6.810e-08,-0.004,0.002,-0.004,0.004
6.830e-08,-0.004,-0.002,4.44089e-17,-0.004
6.850e-08,0.008,-0.002,-0.008,0
6.870e-08,-0.008,-0.006,4.44089e-17,0.004
6.890e-08,-0.004,-0.01,-0.004,0
6.910e-08,-0.004,0.002,4.44089e-17,-0.004
6.930e-08,0,-0.002,-0.008,-0.004
6.950e-08,-0.008,-0.002,-0.004,-0.004
6.970e-08,-0.008,-0.002,-0.004,0.008
6.990e-08,-0.008,-0.002,4.44089e-17,0.004
7.010e-08,0.004,0.002,-0.004,0.008
7.030e-08,0,-0.002,-0.004,0
7.050e-08,-0.004,-0.002,-0.008,0.004
7.070e-08,-0.012,-0.01,4.44089e-17,0.004
7.090e-08,-0.004,-0.01,-0.004,0.004
7.110e-08,-0.008,-0.01,0.004,0.008
7.130e-08,-0.004,-0.002,-0.004,0.008
7.150e-08,-0.008,-0.002,-0.004,0.008
7.170e-08,-0.004,0.002,-0.004,0
7.190e-08,-0.012,-0.002,4.44089e-17,0
7.210e-08,0,-0.002,-0.008,0.008
7.230e-08,0,-0.002,-0.008,0.008
7.250e-08,-0.004,-0.002,-0.012,0.008
7.270e-08,-0.008,-0.002,-0.004,0.004
7.290e-08,0,0.006,-0.008,0.008
7.310e-08,0,-0.002,4.44089e-17,0.004
7.330e-08,0,0.006,-0.008,0.008
7.350e-08,-0.004,-0.002,0.004,0.004
7.370e-08,0,0.002,-0.008,0.008
7.390e-08,-0.004,-0.002,-0.008,0.008
7.410e-08,0,-0.002,-0.008,0.012
7.430e-08,-0.012,-0.01,0.004,0.004
7.450e-08,0,-0.002,-0.004,0.004
7.470e-08,-0.004,-0.006,0.004,0.008
7.490e-08,-0.004,0.006,4.44089e-17,0.008
7.510e-08,0,-0.01,4.44089e-17,0
7.530e-08,0.012,-0.002,4.44089e-17,0
7.550e-08,-0.004,-0.002,-0.004,0.008
7.570e-08,0,-0.01,-0.008,0.008
7.590e-08,-0.004,-0.01,-0.012,0.004
7.610e-08,0,-0.006,-0.008,0.008
7.630e-08,-0.012,-0.006,4.44089e-17,0
7.650e-08,-0.008,-0.002,4.44089e-17,0.008
7.670e-08,-0.008,-0.002,4.44089e-17,0.004
7.690e-08,0,0.01,-0.008,0.004
7.710e-08,-0.004,-0.006,4.44089e-17,0.004
7.730e-08,-0.004,-0.002,-0.004,0
7.750e-08,-0.004,-0.01,4.44089e-17,0
7.770e-08,0,-0.006,-0.008,0
7.790e-08,-0.004,-0.002,-0.008,0
7.810e-08,0,-0.002,-0.008,0.008
7.830e-08,0,-0.01,-0.012,0.008
7.850e-08,0.004,-0.01,-0.008,-0.004
7.870e-08,-0.004,0.002,-0.012,0
7.890e-08,0,0.006,-0.012,0.008
7.910e-08,-0.008,0.002,-0.008,0.012
7.930e-08,0,0.002,-0.008,0.004
7.950e-08,-0.004,0.002,-0.004,-0.004
7.970e-08,0,0.002,-0.008,0
7.990e-08,-0.004,-0.002,4.44089e-17,0
8.010e-08,0,0.002,-0.008,0
8.030e-08,-0.004,0.006,4.44089e-17,0.008
8.050e-08,0,0.002,-0.004,0.012
8.070e-08,-0.004,-0.006,4.44089e-17,0.016
8.090e-08,0,-0.002,-0.008,0.008
8.110e-08,-0.004,-0.01,4.44089e-17,0
8.130e-08,-0.008,-0.002,-0.012,0.004
8.150e-08,-0.004,-0.006,-0.004,0.004
8.170e-08,0.004,-0.006,-0.008,0.008
8.190e-08,-0.008,-0.002,-0.004,0
8.210e-08,0,-0.006,-0.008,0.004
8.230e-08,-0.008,0.002,-0.004,0.004
8.250e-08,-0.008,0.002,-0.008,0.004
8.270e-08,-0.012,0.002,4.44089e-17,0
8.290e-08,-0.008,-0.002,-0.008,0.008
8.310e-08,-0.008,-0.002,-0.004,0.012
8.330e-08,-0.004,0.002,-0.004,0.004
8.350e-08,-0.008,-0.006,4.44089e-17,0.004
8.370e-08,0,-0.002,-0.004,0.004
8.390e-08,0,-0.006,-0.004,0
8.410e-08,0,0.002,-0.008,-0.004
8.430e-08,-0.004,-0.002,-0.004,0
8.450e-08,0,0.002,-0.008,0.004
8.470e-08,-0.004,-0.002,-0.008,0
8.490e-08,0,0.002,4.44089e-17,0.004
8.510e-08,-0.008,-0.002,4.44089e-17,0.008
8.530e-08,-0.008,0.002,-0.004,0.008
8.550e-08,-0.004,-0.01,-0.008,0.004
8.570e-08,0,-0.002,-0.004,0.008
8.590e-08,-0.008,-0.002,-0.004,0.004
8.610e-08,0,-0.002,-0.008,0.004
8.630e-08,-0.008,-0.006,-0.004,0.004
8.650e-08,-0.004,-0.002,-0.008,0.012
8.670e-08,-0.012,-0.006,-0.004,0.008
8.690e-08,0,-0.006,4.44089e-17,-0.004
8.710e-08,-0.004,-0.006,-0.008,0
8.730e-08,0.004,-0.002,-0.008,0.008
8.750e-08,-0.004,-0.002,-0.008,0.004
8.770e-08,-0.004,0.002,-0.008,0.008
8.790e-08,0,-0.006,4.44089e-17,0.004
8.810e-08,0.004,-0.002,-0.004,0
8.830e-08,-0.008,-0.006,0.004,0.008
8.850e-08,-0.016,-0.002,-0.008,0.004
8.870e-08,-0.008,0.002,-0.004,0.004
8.890e-08,0,-0.002,-0.008,0
8.910e-08,-0.004,-0.002,-0.012,0.004
8.930e-08,0,-0.01,-0.012,0.008
8.950e-08,-0.008,-0.01,4.44089e-17,0.008
8.970e-08,0,-0.002,-0.004,0.012
8.990e-08,-0.004,-0.002,4.44089e-17,0.008
9.010e-08,-0.004,-0.002,-0.008,0.008
9.030e-08,-0.004,-0.006,4.44089e-17,0.008
9.050e-08,0,-0.002,-0.008,0.008
9.070e-08,-0.008,-0.006,-0.008,0.008
9.090e-08,0.004,-0.002,4.44089e-17,0.008
9.110e-08,0,-0.01,0.004,0.004
9.130e-08,-0.004,-0.006,-0.004,0.008
9.150e-08,-0.004,-0.006,4.44089e-17,0.008
9.170e-08,0,0.002,-0.008,0.008
9.190e-08,-0.004,-0.01,-0.004,0
9.210e-08,0,-0.01,-0.004,0.008
9.230e-08,-0.004,-0.01,-0.004,0.008
9.250e-08,0,-0.006,-0.008,0.008
9.270e-08,-0.004,-0.006,4.44089e-17,0.008
9.290e-08,0,-0.002,-0.008,0.004
9.310e-08,-0.008,-0.006,-0.008,0.008
9.330e-08,0,-0.01,-0.008,0.004
9.350e-08,-0.008,-0.006,-0.004,0.008
9.370e-08,0,0.006,-0.012,0.004
9.390e-08,-0.004,0.002,-0.004,0.004
9.410e-08,0,-0.002,4.44089e-17,0
9.430e-08,-0.008,-0.002,0.008,0.008
9.450e-08,0,-0.002,-0.012,0.004
9.470e-08,-0.004,-0.01,-0.008,0.004
9.490e-08,0,-0.002,-0.004,0.008
9.510e-08,-0.008,-0.002,4.44089e-17,0
9.530e-08,-0.004,0.002,-0.004,-0.004
9.550e-08,-0.008,-0.002,-0.008,0
9.570e-08,0,-0.006,-0.008,0.012
9.590e-08,-0.008,-0.014,-0.004,0.008
9.610e-08,-0.008,-0.006,-0.012,0
9.630e-08,-0.008,-0.002,-0.004,0.004
9.650e-08,-0.004,-0.006,-0.004,0
9.670e-08,-0.008,-0.01,-0.004,0.004
9.690e-08,-0.004,-0.002,-0.008,0.004
9.710e-08,-0.008,-0.01,-0.004,0
9.730e-08,0,-0.002,-0.004,0.004
9.750e-08,-0.004,-0.01,4.44089e-17,0.004
9.770e-08,0,-0.006,-0.008,0.008
9.790e-08,-0.008,-0.01,-0.004,0.008
9.810e-08,-0.004,-0.002,-0.004,0.004
9.830e-08,-0.004,-0.002,-0.008,0.004
9.850e-08,-0.004,-0.002,-0.016,0.008
9.870e-08,-0.004,-0.002,-0.008,0.004
9.890e-08,0,-0.002,-0.008,0
9.910e-08,-0.008,-0.002,-0.004,0
9.930e-08,0,0.002,-0.008,0.008
9.950e-08,0,-0.006,-0.004,0.004
9.970e-08,0,-0.002,-0.004,0.008
9.990e-08,-0.008,-0.006,-0.004,0
1.001e-07,-0.012,0.002,-0.008,0
1.003e-07,-0.008,-0.002,-0.004,0
1.005e-07,0,0.002,-0.008,0
1.007e-07,0,-0.002,-0.004,0
1.009e-07,0,-0.002,-0.008,0.004
1.011e-07,-0.004,-0.01,4.44089e-17,0.004
1.013e-07,0,0.002,-0.004,0.008
1.015e-07,-0.004,-0.002,4.44089e-17,0
1.017e-07,-0.004,-0.002,-0.008,0
1.019e-07,-0.008,-0.01,-0.004,0
1.021e-07,0.004,-0.002,-0.008,0
1.023e-07,0,-0.006,-0.004,0.004
1.025e-07,0.004,0.002,-0.008,0.004
1.027e-07,-0.004,0.002,4.44089e-17,0.008
1.029e-07,0,-0.002,-0.008,0.004
1.031e-07,-0.004,-0.002,-0.008,0.004
1.033e-07,0,0.002,4.44089e-17,0.004
1.035e-07,-0.008,0.002,4.44089e-17,0.008
1.037e-07,0,-0.006,-0.008,0.008
1.039e-07,-0.008,-0.006,-0.008,0.008
1.041e-07,0,0.002,-0.008,0.008
1.043e-07,-0.004,-0.002,-0.008,0.004
1.045e-07,0.008,-0.002,-0.008,0.008
1.047e-07,-0.004,-0.002,-0.008,0.012
1.049e-07,0.004,-0.002,-0.008,0.004
1.051e-07,-0.004,-0.002,-0.004,0.008
1.053e-07,0.004,0.002,-0.004,0
1.055e-07,0,-0.002,-0.004,-0.004

